Channel			  :,CH1
Frequency			  :,F=  ?
Period 			  :,T=  ?
PK-PK				  :,Vpp=4.480V
Average			  :,V=-13.80mV
Vertical pos		  :,0.00mV
Probe attenuation	  :,10X
Voltage per ADC value:,40.00mV
Time interval		  :,0.00uS

index,CH1_Voltage(mV)
0,40.00
1,0.00
2,0.00
3,0.00
4,40.00
5,0.00
6,0.00
7,0.00
8,40.00
9,40.00
10,40.00
11,0.00
12,0.00
13,0.00
14,0.00
15,0.00
16,40.00
17,0.00
18,40.00
19,0.00
20,0.00
21,0.00
22,0.00
23,0.00
24,0.00
25,0.00
26,0.00
27,0.00
28,0.00
29,0.00
30,0.00
31,40.00
32,0.00
33,0.00
34,0.00
35,40.00
36,0.00
37,0.00
38,40.00
39,0.00
40,40.00
41,0.00
42,0.00
43,0.00
44,40.00
45,0.00
46,0.00
47,0.00
48,0.00
49,40.00
50,0.00
51,0.00
52,40.00
53,0.00
54,0.00
55,0.00
56,0.00
57,0.00
58,0.00
59,0.00
60,0.00
61,0.00
62,40.00
63,0.00
64,40.00
65,0.00
66,0.00
67,40.00
68,0.00
69,0.00
70,0.00
71,0.00
72,0.00
73,0.00
74,40.00
75,0.00
76,0.00
77,0.00
78,0.00
79,0.00
80,40.00
81,40.00
82,40.00
83,0.00
84,0.00
85,0.00
86,0.00
87,0.00
88,0.00
89,0.00
90,0.00
91,0.00
92,40.00
93,0.00
94,40.00
95,0.00
96,40.00
97,40.00
98,0.00
99,0.00
100,40.00
101,0.00
102,0.00
103,0.00
104,0.00
105,40.00
106,0.00
107,0.00
108,40.00
109,0.00
110,40.00
111,0.00
112,40.00
113,0.00
114,0.00
115,0.00
116,40.00
117,0.00
118,40.00
119,0.00
120,0.00
121,0.00
122,0.00
123,0.00
124,0.00
125,0.00
126,0.00
127,0.00
128,40.00
129,0.00
130,0.00
131,0.00
132,0.00
133,0.00
134,40.00
135,0.00
136,0.00
137,0.00
138,0.00
139,0.00
140,40.00
141,0.00
142,40.00
143,0.00
144,40.00
145,0.00
146,40.00
147,0.00
148,40.00
149,0.00
150,40.00
151,0.00
152,0.00
153,0.00
154,0.00
155,40.00
156,40.00
157,0.00
158,0.00
159,40.00
160,0.00
161,0.00
162,0.00
163,0.00
164,40.00
165,0.00
166,40.00
167,0.00
168,40.00
169,0.00
170,0.00
171,0.00
172,40.00
173,0.00
174,0.00
175,40.00
176,0.00
177,40.00
178,0.00
179,0.00
180,40.00
181,0.00
182,40.00
183,0.00
184,0.00
185,0.00
186,0.00
187,0.00
188,0.00
189,0.00
190,40.00
191,0.00
192,0.00
193,0.00
194,40.00
195,40.00
196,40.00
197,0.00
198,0.00
199,0.00
200,0.00
201,0.00
202,0.00
203,0.00
204,0.00
205,0.00
206,40.00
207,0.00
208,40.00
209,0.00
210,0.00
211,0.00
212,0.00
213,0.00
214,0.00
215,0.00
216,40.00
217,0.00
218,0.00
219,0.00
220,40.00
221,0.00
222,0.00
223,0.00
224,0.00
225,40.00
226,40.00
227,0.00
228,40.00
229,0.00
230,0.00
231,0.00
232,0.00
233,0.00
234,40.00
235,0.00
236,0.00
237,0.00
238,0.00
239,0.00
240,40.00
241,0.00
242,0.00
243,0.00
244,0.00
245,0.00
246,40.00
247,40.00
248,40.00
249,0.00
250,40.00
251,0.00
252,0.00
253,0.00
254,0.00
255,0.00
256,0.00
257,0.00
258,0.00
259,0.00
260,0.00
261,0.00
262,40.00
263,40.00
264,0.00
265,0.00
266,40.00
267,0.00
268,0.00
269,40.00
270,0.00
271,0.00
272,40.00
273,0.00
274,0.00
275,0.00
276,0.00
277,0.00
278,0.00
279,0.00
280,40.00
281,0.00
282,40.00
283,0.00
284,40.00
285,40.00
286,40.00
287,0.00
288,40.00
289,0.00
290,40.00
291,0.00
292,40.00
293,40.00
294,0.00
295,0.00
296,0.00
297,0.00
298,40.00
299,40.00
300,40.00
301,0.00
302,0.00
303,0.00
304,40.00
305,0.00
306,40.00
307,0.00
308,0.00
309,0.00
310,0.00
311,0.00
312,40.00
313,40.00
314,40.00
315,0.00
316,40.00
317,0.00
318,0.00
319,0.00
320,0.00
321,0.00
322,40.00
323,0.00
324,40.00
325,0.00
326,0.00
327,0.00
328,40.00
329,40.00
330,0.00
331,0.00
332,40.00
333,40.00
334,0.00
335,0.00
336,40.00
337,0.00
338,0.00
339,0.00
340,40.00
341,0.00
342,40.00
343,0.00
344,40.00
345,0.00
346,40.00
347,0.00
348,0.00
349,0.00
350,0.00
351,40.00
352,40.00
353,0.00
354,40.00
355,0.00
356,0.00
357,0.00
358,40.00
359,40.00
360,0.00
361,0.00
362,40.00
363,0.00
364,0.00
365,0.00
366,40.00
367,0.00
368,0.00
369,0.00
370,40.00
371,0.00
372,40.00
373,0.00
374,0.00
375,0.00
376,0.00
377,0.00
378,0.00
379,0.00
380,0.00
381,0.00
382,40.00
383,0.00
384,40.00
385,0.00
386,0.00
387,0.00
388,0.00
389,0.00
390,40.00
391,0.00
392,40.00
393,0.00
394,40.00
395,0.00
396,0.00
397,0.00
398,40.00
399,0.00
400,0.00
401,0.00
402,40.00
403,0.00
404,0.00
405,0.00
406,40.00
407,40.00
408,40.00
409,0.00
410,0.00
411,0.00
412,40.00
413,0.00
414,40.00
415,0.00
416,0.00
417,0.00
418,40.00
419,0.00
420,0.00
421,0.00
422,0.00
423,0.00
424,40.00
425,0.00
426,0.00
427,0.00
428,0.00
429,0.00
430,40.00
431,40.00
432,0.00
433,0.00
434,40.00
435,0.00
436,40.00
437,0.00
438,0.00
439,40.00
440,0.00
441,0.00
442,40.00
443,0.00
444,0.00
445,40.00
446,0.00
447,0.00
448,40.00
449,0.00
450,0.00
451,0.00
452,40.00
453,0.00
454,0.00
455,0.00
456,40.00
457,0.00
458,0.00
459,0.00
460,40.00
461,0.00
462,40.00
463,0.00
464,0.00
465,0.00
466,0.00
467,0.00
468,40.00
469,0.00
470,0.00
471,0.00
472,0.00
473,0.00
474,40.00
475,0.00
476,40.00
477,0.00
478,40.00
479,0.00
480,40.00
481,0.00
482,0.00
483,0.00
484,0.00
485,0.00
486,40.00
487,0.00
488,0.00
489,0.00
490,40.00
491,0.00
492,40.00
493,40.00
494,0.00
495,0.00
496,40.00
497,0.00
498,0.00
499,0.00
500,40.00
501,0.00
502,0.00
503,0.00
504,0.00
505,0.00
506,0.00
507,0.00
508,40.00
509,0.00
510,40.00
511,0.00
512,40.00
513,40.00
514,40.00
515,40.00
516,0.00
517,0.00
518,40.00
519,40.00
520,0.00
521,0.00
522,0.00
523,0.00
524,0.00
525,0.00
526,40.00
527,0.00
528,40.00
529,0.00
530,40.00
531,0.00
532,40.00
533,40.00
534,40.00
535,0.00
536,40.00
537,40.00
538,40.00
539,40.00
540,0.00
541,0.00
542,0.00
543,0.00
544,0.00
545,0.00
546,0.00
547,0.00
548,40.00
549,0.00
550,0.00
551,0.00
552,0.00
553,0.00
554,0.00
555,0.00
556,0.00
557,0.00
558,0.00
559,0.00
560,0.00
561,40.00
562,0.00
563,0.00
564,40.00
565,0.00
566,40.00
567,0.00
568,0.00
569,0.00
570,40.00
571,0.00
572,40.00
573,0.00
574,0.00
575,0.00
576,0.00
577,0.00
578,0.00
579,0.00
580,40.00
581,0.00
582,0.00
583,0.00
584,40.00
585,0.00
586,40.00
587,40.00
588,40.00
589,0.00
590,0.00
591,0.00
592,40.00
593,0.00
594,0.00
595,0.00
596,0.00
597,0.00
598,40.00
599,0.00
600,40.00
601,0.00
602,0.00
603,0.00
604,0.00
605,0.00
606,0.00
607,0.00
608,0.00
609,0.00
610,0.00
611,0.00
612,0.00
613,0.00
614,0.00
615,0.00
616,40.00
617,0.00
618,0.00
619,0.00
620,0.00
621,0.00
622,40.00
623,0.00
624,40.00
625,0.00
626,40.00
627,0.00
628,0.00
629,40.00
630,0.00
631,0.00
632,0.00
633,0.00
634,40.00
635,0.00
636,0.00
637,0.00
638,0.00
639,0.00
640,0.00
641,0.00
642,40.00
643,0.00
644,0.00
645,0.00
646,0.00
647,0.00
648,0.00
649,40.00
650,0.00
651,40.00
652,0.00
653,0.00
654,0.00
655,0.00
656,0.00
657,0.00
658,0.00
659,0.00
660,0.00
661,0.00
662,0.00
663,0.00
664,40.00
665,40.00
666,40.00
667,40.00
668,40.00
669,0.00
670,0.00
671,0.00
672,40.00
673,0.00
674,40.00
675,0.00
676,0.00
677,0.00
678,0.00
679,0.00
680,0.00
681,0.00
682,40.00
683,0.00
684,40.00
685,0.00
686,40.00
687,0.00
688,0.00
689,0.00
690,40.00
691,0.00
692,0.00
693,0.00
694,40.00
695,0.00
696,40.00
697,0.00
698,0.00
699,0.00
700,0.00
701,0.00
702,0.00
703,0.00
704,40.00
705,0.00
706,0.00
707,0.00
708,0.00
709,0.00
710,40.00
711,0.00
712,0.00
713,0.00
714,40.00
715,0.00
716,0.00
717,0.00
718,0.00
719,0.00
720,0.00
721,0.00
722,0.00
723,0.00
724,0.00
725,0.00
726,0.00
727,0.00
728,40.00
729,0.00
730,0.00
731,0.00
732,40.00
733,0.00
734,0.00
735,40.00
736,40.00
737,0.00
738,0.00
739,0.00
740,0.00
741,0.00
742,0.00
743,0.00
744,0.00
745,0.00
746,0.00
747,0.00
748,40.00
749,0.00
750,0.00
751,0.00
752,0.00
753,0.00
754,40.00
755,0.00
756,0.00
757,0.00
758,0.00
759,0.00
760,0.00
761,0.00
762,0.00
763,0.00
764,40.00
765,0.00
766,40.00
767,0.00
768,0.00
769,0.00
770,0.00
771,0.00
772,0.00
773,0.00
774,0.00
775,40.00
776,0.00
777,0.00
778,40.00
779,40.00
780,40.00
781,0.00
782,40.00
783,40.00
784,40.00
785,0.00
786,0.00
787,0.00
788,40.00
789,0.00
790,0.00
791,0.00
792,0.00
793,0.00
794,0.00
795,0.00
796,40.00
797,0.00
798,40.00
799,0.00
800,0.00
801,0.00
802,0.00
803,0.00
804,40.00
805,0.00
806,40.00
807,0.00
808,0.00
809,0.00
810,0.00
811,0.00
812,0.00
813,0.00
814,0.00
815,0.00
816,40.00
817,0.00
818,0.00
819,40.00
820,0.00
821,40.00
822,0.00
823,0.00
824,40.00
825,0.00
826,0.00
827,0.00
828,0.00
829,0.00
830,0.00
831,40.00
832,40.00
833,0.00
834,40.00
835,0.00
836,0.00
837,0.00
838,40.00
839,40.00
840,40.00
841,0.00
842,40.00
843,0.00
844,40.00
845,40.00
846,0.00
847,0.00
848,40.00
849,0.00
850,40.00
851,0.00
852,0.00
853,40.00
854,0.00
855,0.00
856,40.00
857,0.00
858,40.00
859,0.00
860,0.00
861,0.00
862,0.00
863,0.00
864,40.00
865,0.00
866,40.00
867,40.00
868,0.00
869,0.00
870,0.00
871,0.00
872,0.00
873,0.00
874,0.00
875,0.00
876,40.00
877,0.00
878,40.00
879,0.00
880,40.00
881,40.00
882,0.00
883,40.00
884,40.00
885,0.00
886,0.00
887,0.00
888,0.00
889,40.00
890,0.00
891,0.00
892,0.00
893,0.00
894,40.00
895,0.00
896,40.00
897,0.00
898,40.00
899,0.00
900,40.00
901,0.00
902,0.00
903,0.00
904,40.00
905,0.00
906,40.00
907,40.00
908,0.00
909,0.00
910,40.00
911,0.00
912,40.00
913,0.00
914,0.00
915,0.00
916,0.00
917,0.00
918,40.00
919,0.00
920,0.00
921,0.00
922,0.00
923,0.00
924,40.00
925,0.00
926,40.00
927,0.00
928,0.00
929,0.00
930,40.00
931,0.00
932,0.00
933,0.00
934,0.00
935,0.00
936,40.00
937,0.00
938,0.00
939,0.00
940,40.00
941,0.00
942,40.00
943,0.00
944,0.00
945,0.00
946,40.00
947,0.00
948,0.00
949,0.00
950,0.00
951,0.00
952,0.00
953,0.00
954,0.00
955,0.00
956,40.00
957,0.00
958,40.00
959,0.00
960,40.00
961,40.00
962,40.00
963,0.00
964,40.00
965,0.00
966,0.00
967,0.00
968,0.00
969,0.00
970,40.00
971,0.00
972,40.00
973,0.00
974,40.00
975,0.00
976,40.00
977,0.00
978,0.00
979,0.00
980,0.00
981,0.00
982,0.00
983,0.00
984,0.00
985,0.00
986,0.00
987,0.00
988,0.00
989,0.00
990,0.00
991,0.00
992,40.00
993,0.00
994,40.00
995,40.00
996,40.00
997,40.00
998,0.00
999,40.00
1000,40.00
1001,0.00
1002,0.00
1003,0.00
1004,0.00
1005,0.00
1006,0.00
1007,0.00
1008,40.00
1009,0.00
1010,40.00
1011,0.00
1012,40.00
1013,0.00
1014,40.00
1015,0.00
1016,40.00
1017,0.00
1018,0.00
1019,40.00
1020,0.00
1021,0.00
1022,0.00
1023,40.00
1024,40.00
1025,40.00
1026,0.00
1027,0.00
1028,0.00
1029,0.00
1030,40.00
1031,0.00
1032,40.00
1033,0.00
1034,40.00
1035,0.00
1036,0.00
1037,0.00
1038,0.00
1039,0.00
1040,40.00
1041,40.00
1042,40.00
1043,40.00
1044,0.00
1045,0.00
1046,0.00
1047,0.00
1048,0.00
1049,0.00
1050,0.00
1051,0.00
1052,0.00
1053,0.00
1054,40.00
1055,0.00
1056,40.00
1057,0.00
1058,0.00
1059,0.00
1060,0.00
1061,0.00
1062,0.00
1063,0.00
1064,0.00
1065,0.00
1066,0.00
1067,0.00
1068,0.00
1069,40.00
1070,40.00
1071,40.00
1072,40.00
1073,0.00
1074,0.00
1075,0.00
1076,0.00
1077,0.00
1078,40.00
1079,0.00
1080,40.00
1081,0.00
1082,0.00
1083,0.00
1084,0.00
1085,0.00
1086,0.00
1087,0.00
1088,0.00
1089,0.00
1090,40.00
1091,0.00
1092,0.00
1093,0.00
1094,0.00
1095,0.00
1096,40.00
1097,0.00
1098,40.00
1099,0.00
1100,40.00
1101,0.00
1102,40.00
1103,0.00
1104,40.00
1105,0.00
1106,40.00
1107,0.00
1108,0.00
1109,0.00
1110,0.00
1111,0.00
1112,0.00
1113,40.00
1114,0.00
1115,40.00
1116,0.00
1117,0.00
1118,0.00
1119,0.00
1120,40.00
1121,0.00
1122,0.00
1123,0.00
1124,0.00
1125,0.00
1126,0.00
1127,0.00
1128,40.00
1129,0.00
1130,0.00
1131,0.00
1132,0.00
1133,40.00
1134,40.00
1135,40.00
1136,40.00
1137,0.00
1138,0.00
1139,0.00
1140,0.00
1141,40.00
1142,0.00
1143,0.00
1144,40.00
1145,0.00
1146,40.00
1147,0.00
1148,40.00
1149,0.00
1150,40.00
1151,0.00
1152,40.00
1153,0.00
1154,0.00
1155,40.00
1156,0.00
1157,0.00
1158,0.00
1159,40.00
1160,0.00
1161,40.00
1162,40.00
1163,0.00
1164,40.00
1165,0.00
1166,0.00
1167,0.00
1168,0.00
1169,0.00
1170,40.00
1171,0.00
1172,0.00
1173,0.00
1174,40.00
1175,0.00
1176,0.00
1177,40.00
1178,40.00
1179,0.00
1180,0.00
1181,0.00
1182,0.00
1183,0.00
1184,40.00
1185,0.00
1186,0.00
1187,0.00
1188,40.00
1189,0.00
1190,0.00
1191,0.00
1192,40.00
1193,0.00
1194,0.00
1195,0.00
1196,40.00
1197,0.00
1198,0.00
1199,0.00
1200,40.00
1201,0.00
1202,0.00
1203,40.00
1204,0.00
1205,0.00
1206,40.00
1207,0.00
1208,0.00
1209,0.00
1210,0.00
1211,0.00
1212,40.00
1213,0.00
1214,40.00
1215,0.00
1216,40.00
1217,0.00
1218,40.00
1219,0.00
1220,0.00
1221,0.00
1222,0.00
1223,0.00
1224,40.00
1225,40.00
1226,0.00
1227,0.00
1228,0.00
1229,0.00
1230,40.00
1231,0.00
1232,0.00
1233,0.00
1234,0.00
1235,0.00
1236,40.00
1237,0.00
1238,0.00
1239,0.00
1240,0.00
1241,0.00
1242,0.00
1243,0.00
1244,40.00
1245,0.00
1246,0.00
1247,0.00
1248,40.00
1249,0.00
1250,0.00
1251,0.00
1252,40.00
1253,0.00
1254,0.00
1255,0.00
1256,40.00
1257,0.00
1258,0.00
1259,0.00
1260,0.00
1261,0.00
1262,40.00
1263,0.00
1264,40.00
1265,0.00
1266,0.00
1267,0.00
1268,0.00
1269,0.00
1270,40.00
1271,0.00
1272,40.00
1273,0.00
1274,40.00
1275,0.00
1276,40.00
1277,0.00
1278,40.00
1279,0.00
1280,40.00
1281,0.00
1282,40.00
1283,0.00
1284,40.00
1285,0.00
1286,40.00
1287,0.00
1288,0.00
1289,0.00
1290,0.00
1291,0.00
1292,40.00
1293,0.00
1294,0.00
1295,0.00
1296,0.00
1297,0.00
1298,0.00
1299,0.00
1300,40.00
1301,0.00
1302,0.00
1303,0.00
1304,0.00
1305,0.00
1306,40.00
1307,0.00
1308,0.00
1309,0.00
1310,40.00
1311,0.00
1312,0.00
1313,0.00
1314,0.00
1315,0.00
1316,40.00
1317,0.00
1318,0.00
1319,0.00
1320,0.00
1321,0.00
1322,0.00
1323,40.00
1324,0.00
1325,0.00
1326,40.00
1327,0.00
1328,40.00
1329,0.00
1330,40.00
1331,0.00
1332,0.00
1333,0.00
1334,0.00
1335,0.00
1336,40.00
1337,40.00
1338,40.00
1339,0.00
1340,40.00
1341,0.00
1342,0.00
1343,0.00
1344,40.00
1345,0.00
1346,40.00
1347,0.00
1348,40.00
1349,0.00
1350,0.00
1351,0.00
1352,0.00
1353,0.00
1354,0.00
1355,0.00
1356,0.00
1357,0.00
1358,0.00
1359,0.00
1360,40.00
1361,0.00
1362,0.00
1363,0.00
1364,40.00
1365,0.00
1366,0.00
1367,0.00
1368,40.00
1369,0.00
1370,0.00
1371,0.00
1372,40.00
1373,0.00
1374,40.00
1375,0.00
1376,40.00
1377,40.00
1378,0.00
1379,0.00
1380,0.00
1381,0.00
1382,0.00
1383,0.00
1384,0.00
1385,0.00
1386,0.00
1387,0.00
1388,0.00
1389,0.00
1390,40.00
1391,0.00
1392,0.00
1393,40.00
1394,120.00
1395,200.00
1396,320.00
1397,360.00
1398,240.00
1399,40.00
1400,-120.00
1401,-360.00
1402,-640.00
1403,-840.00
1404,-1000.00
1405,-1120.00
1406,-1200.00
1407,-1200.00
1408,-1200.00
1409,-1040.00
1410,-840.00
1411,-560.00
1412,-40.00
1413,360.00
1414,840.00
1415,1320.00
1416,1640.00
1417,1960.00
1418,2120.00
1419,2120.00
1420,2040.00
1421,1720.00
1422,1640.00
1423,1440.00
1424,1480.00
1425,1320.00
1426,1400.00
1427,1320.00
1428,1400.00
1429,1360.00
1430,1360.00
1431,1320.00
1432,1360.00
1433,1320.00
1434,1200.00
1435,880.00
1436,560.00
1437,120.00
1438,-360.00
1439,-880.00
1440,-1280.00
1441,-1640.00
1442,-1920.00
1443,-2040.00
1444,-2040.00
1445,-1880.00
1446,-1680.00
1447,-1440.00
1448,-1400.00
1449,-1320.00
1450,-1360.00
1451,-1280.00
1452,-1360.00
1453,-1320.00
1454,-1360.00
1455,-1360.00
1456,-1360.00
1457,-1360.00
1458,-1360.00
1459,-1200.00
1460,-960.00
1461,-520.00
1462,-120.00
1463,360.00
1464,840.00
1465,1320.00
1466,1640.00
1467,1960.00
1468,2120.00
1469,2080.00
1470,1960.00
1471,1680.00
1472,1520.00
1473,1360.00
1474,1360.00
1475,1320.00
1476,1360.00
1477,1320.00
1478,1360.00
1479,1360.00
1480,1440.00
1481,1360.00
1482,1440.00
1483,1360.00
1484,1280.00
1485,1000.00
1486,640.00
1487,160.00
1488,-280.00
1489,-840.00
1490,-1240.00
1491,-1600.00
1492,-1920.00
1493,-2040.00
1494,-2040.00
1495,-1880.00
1496,-1680.00
1497,-1440.00
1498,-1440.00
1499,-1360.00
1500,-1360.00
1501,-1320.00
1502,-1360.00
1503,-1360.00
1504,-1360.00
1505,-1400.00
1506,-1400.00
1507,-1400.00
1508,-1360.00
1509,-1200.00
1510,-920.00
1511,-520.00
1512,-80.00
1513,440.00
1514,840.00
1515,1320.00
1516,1680.00
1517,1960.00
1518,2160.00
1519,2080.00
1520,1960.00
1521,1680.00
1522,1560.00
1523,1360.00
1524,1360.00
1525,1320.00
1526,1360.00
1527,1320.00
1528,1400.00
1529,1400.00
1530,1480.00
1531,1360.00
1532,1480.00
1533,1360.00
1534,1280.00
1535,920.00
1536,600.00
1537,40.00
1538,-360.00
1539,-880.00
1540,-1320.00
1541,-1720.00
1542,-1960.00
1543,-2080.00
1544,-2080.00
1545,-2000.00
1546,-1720.00
1547,-1480.00
1548,-1440.00
1549,-1360.00
1550,-1360.00
1551,-1320.00
1552,-1360.00
1553,-1360.00
1554,-1400.00
1555,-1400.00
1556,-1400.00
1557,-1400.00
1558,-1360.00
1559,-1200.00
1560,-960.00
1561,-520.00
1562,-80.00
1563,440.00
1564,880.00
1565,1320.00
1566,1680.00
1567,1960.00
1568,2120.00
1569,2120.00
1570,1960.00
1571,1680.00
1572,1560.00
1573,1360.00
1574,1360.00
1575,1320.00
1576,1360.00
1577,1320.00
1578,1400.00
1579,1400.00
1580,1440.00
1581,1400.00
1582,1440.00
1583,1360.00
1584,1280.00
1585,920.00
1586,600.00
1587,80.00
1588,-360.00
1589,-840.00
1590,-1320.00
1591,-1680.00
1592,-1960.00
1593,-2080.00
1594,-2080.00
1595,-1960.00
1596,-1720.00
1597,-1480.00
1598,-1400.00
1599,-1320.00
1600,-1360.00
1601,-1320.00
1602,-1360.00
1603,-1360.00
1604,-1360.00
1605,-1400.00
1606,-1440.00
1607,-1400.00
1608,-1360.00
1609,-1200.00
1610,-960.00
1611,-520.00
1612,-80.00
1613,440.00
1614,880.00
1615,1320.00
1616,1680.00
1617,2000.00
1618,2120.00
1619,2080.00
1620,1960.00
1621,1680.00
1622,1560.00
1623,1360.00
1624,1400.00
1625,1320.00
1626,1360.00
1627,1320.00
1628,1400.00
1629,1360.00
1630,1480.00
1631,1400.00
1632,1440.00
1633,1400.00
1634,1280.00
1635,920.00
1636,640.00
1637,80.00
1638,-360.00
1639,-880.00
1640,-1320.00
1641,-1720.00
1642,-1960.00
1643,-2120.00
1644,-2080.00
1645,-1960.00
1646,-1720.00
1647,-1480.00
1648,-1400.00
1649,-1360.00
1650,-1360.00
1651,-1320.00
1652,-1360.00
1653,-1360.00
1654,-1400.00
1655,-1400.00
1656,-1440.00
1657,-1400.00
1658,-1360.00
1659,-1200.00
1660,-960.00
1661,-520.00
1662,-80.00
1663,360.00
1664,840.00
1665,1320.00
1666,1680.00
1667,2000.00
1668,2120.00
1669,2080.00
1670,1960.00
1671,1680.00
1672,1560.00
1673,1360.00
1674,1400.00
1675,1320.00
1676,1360.00
1677,1320.00
1678,1400.00
1679,1400.00
1680,1440.00
1681,1400.00
1682,1440.00
1683,1400.00
1684,1280.00
1685,920.00
1686,640.00
1687,80.00
1688,-360.00
1689,-840.00
1690,-1280.00
1691,-1680.00
1692,-1960.00
1693,-2080.00
1694,-2080.00
1695,-1960.00
1696,-1720.00
1697,-1480.00
1698,-1440.00
1699,-1320.00
1700,-1360.00
1701,-1320.00
1702,-1360.00
1703,-1360.00
1704,-1400.00
1705,-1400.00
1706,-1400.00
1707,-1400.00
1708,-1400.00
1709,-1240.00
1710,-920.00
1711,-520.00
1712,-80.00
1713,440.00
1714,840.00
1715,1360.00
1716,1680.00
1717,2040.00
1718,2120.00
1719,2080.00
1720,1960.00
1721,1760.00
1722,1560.00
1723,1360.00
1724,1400.00
1725,1320.00
1726,1360.00
1727,1320.00
1728,1400.00
1729,1400.00
1730,1440.00
1731,1400.00
1732,1440.00
1733,1360.00
1734,1280.00
1735,920.00
1736,640.00
1737,80.00
1738,-320.00
1739,-840.00
1740,-1280.00
1741,-1720.00
1742,-1960.00
1743,-2120.00
1744,-2080.00
1745,-1960.00
1746,-1680.00
1747,-1440.00
1748,-1440.00
1749,-1360.00
1750,-1360.00
1751,-1320.00
1752,-1360.00
1753,-1360.00
